#Wave		#Intensity
3000.64844	196.79717
2999.91016	236.39867
2999.17188	137.11821
2998.43359	142.83188
2997.69531	104.5201
2996.95703	69.59561
2996.21875	142.96902
2995.47949	70.80102
2994.74023	150.88472
2994.00098	200.48573
2993.26172	243.29338
2992.52246	181.25601
2991.7832	173.31905
2991.04394	124.81326
2990.30371	208.103
2989.56348	264.32059
2988.82422	286.7301
2988.08398	163.88011
2987.34375	253.8085
2986.60254	286.28934
2985.86231	291.74658
2985.12109	341.06018
2984.38086	322.86023
2983.63965	358.63068
2982.89844	387.62955
2982.15723	312.05429
2981.41602	317.42267
2980.67481	305.91995
2979.93262	250.58302
2979.19141	286.25473
2978.44922	311.78674
2977.70703	246.3354
2976.96484	345.9443
2976.22266	357.94369
2975.47949	258.80557
2974.73731	206.82817
2973.99414	238.99869
2973.25195	240.86348
2972.50879	360.47284
2971.76563	335.37152
2971.02246	219.4538
2970.2793	312.06158
2969.53516	280.21481
2968.79199	292.07422
2968.04785	206.44144
2967.30371	224.99934
2966.55957	337.61194
2965.81543	315.80402
2965.07129	357.80405
2964.32617	299.0314
2963.58203	421.57001
2962.83691	302.36044
2962.0918	240.2356
2961.34766	295.56958
2960.60254	263.63699
2959.85644	402.76575
2959.11133	494.88592
2958.36523	285.177
2957.62012	508.005
2956.87402	472.64032
2956.12793	400.41199
2955.38184	592.89667
2954.63574	554.14673
2953.88965	558.94037
2953.14258	687.61847
2952.39648	692.35992
2951.64941	710.4704
2950.90234	641.5401
2950.15527	810.21332
2949.4082	711.15155
2948.66113	866.34357
2947.91309	887.67828
2947.16602	1032.72339
2946.41797	873.45422
2945.66992	918.13489
2944.92188	909.31244
2944.17383	860.38159
2943.42578	871.59137
2942.67676	809.29096
2941.92871	743.66681
2941.17969	611.26526
2940.43066	702.57452
2939.68164	576.87744
2938.93262	618.07398
2938.18359	529.11395
2937.43457	490.21289
2936.68457	354.57889
2935.93457	319.02478
2935.18555	363.49719
2934.43555	474.6048
2933.68555	382.34644
2932.93457	356.74875
2932.18457	267.84994
2931.43359	345.52072
2930.68359	293.26486
2929.93262	294.28656
2929.18164	162.12048
2928.43066	352.87543
2927.67969	327.21896
2926.92773	354.79129
2926.17676	279.21258
2925.42481	300.10312
2924.67383	167.99713
2923.92188	288.62494
2923.16992	249.61968
2922.41699	174.04513
2921.66504	161.633
2920.91309	205.69638
2920.16016	249.72287
2919.40723	194.07538
2918.6543	307.79712
2917.90137	242.1703
2917.14844	309.33847
2916.39551	164.05039
2915.6416	221.21736
2914.88867	225.27135
2914.13477	186.17851
2913.38086	163.66866
2912.62695	267.16068
2911.87305	241.30008
2911.11914	182.28654
2910.36426	259.1546
2909.61035	200.13057
2908.85547	306.75464
2908.10059	260.95666
2907.3457	231.71974
2906.59082	328.30243
2905.83594	305.65588
2905.08008	253.20583
2904.32519	326.52261
2903.56934	277.36737
2902.81348	343.99988
2902.05762	99.68577
2901.30176	182.83174
2900.5459	246.09428
2899.78906	239.89169
2899.0332	71.7335
2898.27637	125.01636
2897.51953	264.16617
2896.76269	195.14265
2896.00586	248.32884
2895.24902	423.65808
2894.49121	209.32538
2893.73438	308.64716
2892.97656	206.59332
2892.21875	322.34015
2891.46094	388.5434
2890.70313	269.99304
2889.94531	237.2155
2889.1875	201.13747
2888.42871	214.49976
2887.66992	247.61816
2886.91211	290.60315
2886.15332	264.35776
2885.39453	271.04904
2884.63477	155.84993
2883.87598	211.92363
2883.11621	291.0004
2882.35742	195.57364
2881.59766	287.75876
2880.83789	264.72275
2880.07813	146.2686
2879.31836	205.47145
2878.55762	142.94276
2877.79785	77.14099
2877.03711	-21.53618
2876.27637	77.02804
2875.51563	73.66152
2874.75488	109.71044
2873.99414	40.60375
2873.23242	152.15221
2872.47168	73.17951
2871.70996	69.73057
2870.94824	72.83245
2870.18652	102.17509
2869.42481	-22.74423
2868.66309	49.22635
2867.90137	42.42518
2867.13867	52.00154
2866.37598	-0.7464
2865.61426	67.8253
2864.85156	-4.60618
2864.08887	-34.42109
2863.32519	165.12643
2862.5625	50.0783
2861.79883	56.24482
2861.03613	85.32619
2860.27246	65.25668
2859.50879	81.19009
2858.74512	38.18402
2857.98047	18.07724
2857.2168	33.96169
2856.45313	134.88049
2855.68848	150.69678
2854.92383	107.62742
2854.15918	25.32256
2853.39453	54.17721
2852.62988	177.78827
2851.86426	43.17332
2851.09961	52.35622
2850.33398	38.64483
2849.56836	24.92169
2848.80273	-116.16331
2848.03711	111.7089
2847.27148	9.7971
2846.50488	61.28647
2845.73926	-40.61212
2844.97266	59.77027
2844.20606	55.72158
2843.43945	19.04551
2842.67285	18.23276
2841.90625	-57.57654
2841.13965	65.44913
2840.37207	142.78044
2839.60449	14.79946
2838.83691	105.10844
2838.06934	55.31577
2837.30176	-66.11639
2836.53418	-1.93979
2835.7666	6.85779
2834.99805	116.51959
2834.22949	-14.6738
2833.46094	101.42436
2832.69238	175.17586
2831.92383	-21.05188
2831.15527	49.40909
2830.38574	145.82632
2829.61719	66.67638
2828.84766	124.02268
2828.07813	-13.62405
2827.30859	89.1622
2826.53906	130.18051
2825.76953	86.73284
2824.99902	241.33249
2824.22949	214.07684
2823.45898	157.59354
2822.68848	318.53284
2821.91797	161.43797
2821.14746	452.03714
2820.37695	418.18487
2819.60547	533.48096
2818.83398	340.71979
2818.06348	504.58429
2817.29199	519.28064
2816.52051	537.1944
2815.74902	477.33112
2814.97656	466.04929
2814.20508	402.94708
2813.43262	317.17578
2812.66016	263.7912
2811.88769	352.82382
2811.11523	364.1391
2810.34277	320.42844
2809.57031	212.01752
2808.79688	119.79054
2808.02441	241.01587
2807.25098	190.81255
2806.47754	150.30728
2805.7041	132.42244
2804.92969	108.05412
2804.15625	-45.54429
2803.38281	43.1581
2802.6084	44.60177
2801.83398	75.08761
2801.05957	-39.73325
2800.28516	-41.55736
2799.51074	-1.44578
2798.73535	83.79554
2797.96094	98.02504
2797.18555	112.22088
2796.41016	39.32352
2795.63477	95.40324
2794.85938	74.07675
2794.08398	23.7327
2793.30762	-33.06612
2792.53223	26.13373
2791.75586	85.28354
2790.97949	31.66985
2790.20313	-15.50254
2789.42676	30.68874
2788.65039	51.09327
2787.87305	-15.43208
2787.09668	24.24241
2786.31934	5.96571
2785.54199	35.92463
2784.76465	-17.75999
2783.98731	121.47556
2783.20898	16.31174
2782.43164	165.09435
2781.65332	162.75682
2780.87598	131.49513
2780.09766	26.3315
2779.31934	49.65846
2778.54004	-36.2323
2777.76172	28.79701
2776.9834	42.42357
2776.2041	91.31911
2775.42481	124.13338
2774.64551	-38.7838
2773.86621	48.53364
2773.08691	100.52268
2772.30664	40.23803
2771.52734	8.81925
2770.74707	70.33447
2769.9668	106.17062
2769.18652	17.01592
2768.40625	196.96606
2767.62598	-49.15183
2766.84473	28.22169
2766.06445	79.9445
2765.2832	67.59615
2764.50195	106.44115
2763.7207	1.25586
2762.93945	65.65453
2762.1582	177.99065
2761.37598	-74.33321
2760.59473	95.50448
2759.8125	99.00682
2759.03027	-12.58106
2758.24805	198.6268
2757.46582	249.97708
2756.68262	90.43448
2755.90039	298.25311
2755.11719	46.11168
2754.33398	-49.50731
2753.55176	148.5858
2752.76758	139.10715
2751.98438	68.99269
2751.20117	120.12231
2750.41699	104.21468
2749.63379	145.7113
2748.84961	193.53879
2748.06543	43.66617
2747.28125	24.51702
2746.49609	202.93344
2745.71191	110.43625
2744.92676	100.77142
2744.14258	135.69369
2743.35742	-71.45577
2742.57227	125.81684
2741.78711	4.65727
2741.00098	300.45804
2740.21582	109.26169
2739.42969	182.17941
2738.64356	57.82576
2737.85742	181.57278
2737.07129	60.40436
2736.28516	117.29973
2735.49902	161.4388
2734.71191	141.96783
2733.92578	173.33524
2733.13867	55.34398
2732.35156	159.71892
2731.56445	73.49052
2730.77637	225.39798
2729.98926	50.26051
2729.20117	198.90089
2728.41406	103.12651
2727.62598	115.23076
2726.83789	190.75378
2726.04981	91.78909
2725.26074	160.89333
2724.47266	195.08815
2723.68359	86.59401
2722.89551	120.74835
2722.10644	139.01396
2721.31738	106.56249
2720.52734	51.91774
2719.73828	161.96417
2718.94922	142.1292
2718.15918	128.60036
2717.36914	32.76131
2716.5791	145.79858
2715.78906	40.45776
2714.99902	143.9195
2714.20801	161.91397
2713.41797	176.7303
2712.62695	102.98212
2711.83594	111.42753
2711.04492	202.02061
2710.25391	55.56802
2709.46289	221.91884
2708.6709	12.28795
2707.87988	200.64935
2707.08789	208.92743
2706.2959	81.43267
2705.50391	140.18947
2704.71191	271.4859
2703.91894	339.59582
2703.12695	278.33234
2702.33398	116.12931
2701.54102	313.45706
2700.74805	157.57044
2699.95508	294.88107
2699.16211	347.02368
2698.36914	468.44898
2697.57519	391.31345
2696.78125	257.48639
2695.98828	344.15362
2695.19434	320.54804
2694.39941	363.02838
2693.60547	314.20422
2692.81152	167.81885
2692.0166	247.99591
2691.22168	328.121
2690.42676	131.41283
2689.63184	151.73811
2688.83691	300.94061
2688.04199	41.41186
2687.24609	64.80663
2686.45019	138.44815
2685.6543	262.30759
2684.8584	181.92452
2684.0625	337.09186
2683.2666	190.74077
2682.4707	242.20424
2681.67383	-32.82359
2680.87695	175.51729
2680.08008	186.08624
2679.2832	224.86322
2678.48633	216.55576
2677.68945	236.45241
2676.8916	143.43466
2676.09473	41.03882
2675.29688	158.03563
2674.49902	202.89519
2673.70117	94.19899
2672.90234	98.27423
2672.10449	83.54805
2671.30664	228.49754
2670.50781	179.25745
2669.70898	95.58212
2668.91016	80.76453
2668.11133	134.76561
2667.31152	44.80788
2666.51269	48.70648
2665.71289	187.03587
2664.91309	253.38013
2664.11426	103.99629
2663.31348	82.7607
2662.51367	86.52257
2661.71387	112.12985
2660.91309	-30.98613
2660.11328	278.78894
2659.3125	151.26163
2658.51172	245.41605
2657.71094	245.87184
2656.90918	165.15154
2656.1084	93.81257
2655.30664	141.00838
2654.50488	-42.64344
2653.70313	310.12079
2652.90137	107.75316
2652.09961	164.17119
2651.29785	49.12731
2650.49512	205.19073
2649.69336	34.05645
2648.89063	165.09924
2648.08789	65.6068
2647.28516	115.59033
2646.48144	212.21565
2645.67871	265.21948
2644.875	147.00368
2644.07129	377.29309
2643.26758	336.82599
2642.46387	156.38751
2641.66016	203.00255
2640.85644	174.95773
2640.05176	361.37668
2639.24805	78.411
2638.44336	143.54332
2637.63867	174.45223
2636.83398	251.92041
2636.02832	257.89123
2635.22363	254.53558
2634.41797	226.30751
2633.61231	52.1821
2632.80762	290.85724
2632.00098	402.1778
2631.19531	271.47659
2630.38965	289.67834
2629.58301	134.17735
2628.77734	353.87976
2627.9707	247.97559
2627.16406	207.17204
2626.35742	181.85387
2625.54981	227.76393
2624.74316	224.0869
2623.93555	334.96127
2623.12891	98.98787
2622.32129	311.95837
2621.51367	289.58707
2620.70508	196.00868
2619.89746	250.9717
2619.08887	247.09918
2618.28125	370.02884
2617.47266	353.71811
2616.66406	117.87357
2615.85547	314.86093
2615.0459	301.57312
2614.23731	306.82187
2613.42773	274.95605
2612.61816	286.32248
2611.80957	279.14542
2610.99902	222.51364
2610.18945	209.11427
2609.37988	340.76401
2608.56934	256.30624
2607.75977	221.23723
2606.94922	294.11145
2606.13867	447.12555
2605.32813	214.59685
2604.5166	352.0889
2603.70606	338.47611
2602.89453	355.64862
2602.08301	292.6748
2601.27148	315.96234
2600.45996	142.08254
2599.64844	205.37617
2598.83691	148.5376
2598.02441	140.9368
2597.21191	-11.34754
2596.39941	251.84181
2595.58691	262.61325
2594.77441	461.00339
2593.96191	265.61621
2593.14844	260.91483
2592.33594	197.79091
2591.52246	399.00507
2590.70898	222.10152
2589.89551	324.8591
2589.08106	215.55864
2588.26758	161.57834
2587.45313	334.83341
2586.63965	495.73193
2585.82519	278.93753
2585.01074	387.54346
2584.19531	357.97638
2583.38086	245.57134
2582.56543	280.41122
2581.75098	284.55869
2580.93555	319.32849
2580.12012	305.00632
2579.30469	342.77481
2578.48828	371.29395
2577.67285	430.43417
2576.85644	158.64966
2576.04004	285.12717
2575.22363	393.15765
2574.40723	265.36322
2573.59082	305.95969
2572.77441	371.00125
2571.95703	249.3122
2571.13965	357.10678
2570.32227	455.65936
2569.50488	376.76395
2568.6875	423.24323
2567.87012	381.02008
2567.05176	228.73215
2566.23438	519.62317
2565.41602	535.36829
2564.59766	309.74298
2563.7793	279.65588
2562.95996	273.96918
2562.1416	500.31888
2561.32227	305.27841
2560.50391	397.19577
2559.68457	394.44116
2558.86523	315.38928
2558.04492	483.40262
2557.22559	318.91928
2556.40527	419.73596
2555.58594	331.49109
2554.76563	444.40848
2553.94531	453.64429
2553.12402	401.89578
2552.30371	432.40903
2551.4834	271.00238
2550.66211	161.38234
2549.84082	487.15832
2549.01953	316.60715
2548.19824	432.18048
2547.37695	340.76752
2546.55469	428.84412
2545.7334	550.33783
2544.91113	437.57208
2544.08887	330.90445
2543.2666	424.89398
2542.44434	497.54605
2541.62109	141.6436
2540.79883	147.42741
2539.97559	341.50674
2539.15234	438.29739
2538.3291	301.20664
2537.50586	385.77249
2536.68164	570.43451
2535.8584	448.49338
2535.03418	393.31045
2534.20996	438.23627
2533.38574	282.92908
2532.56152	461.24185
2531.73731	284.71222
2530.91211	347.6926
2530.08789	137.8595
2529.26269	303.82297
2528.4375	233.37711
2527.61231	538.55121
2526.78711	507.40726
2525.96094	243.07147
2525.13574	490.47165
2524.30957	217.1057
2523.4834	313.03058
2522.65723	490.58908
2521.83106	462.34073
2521.00391	488.5029
2520.17773	478.35815
2519.35059	570.97156
2518.52344	569.81372
2517.69629	447.73578
2516.86914	473.74548
2516.04199	478.5704
2515.21387	422.93652
2514.38574	717.62659
2513.55859	429.43179
2512.73047	458.28986
2511.90137	435.78125
2511.07324	383.09436
2510.24512	541.60742
2509.41602	440.58337
2508.58691	363.70017
2507.75781	497.90601
2506.92871	544.60132
2506.09961	512.87848
2505.27051	420.86475
2504.44043	470.4642
2503.61035	580.27179
2502.78027	229.15823
2501.95019	405.17181
2501.12012	418.49905
2500.29004	555.22205
2499.45898	619.61267
2498.62793	358.9502
2497.79785	624.90228
2496.9668	535.74853
2496.13477	359.36386
2495.30371	417.58398
2494.47266	559.93567
2493.64063	599.98944
2492.80859	459.68353
2491.97656	655.93396
2491.14453	692.86279
2490.3125	504.48123
2489.47949	568.38025
2488.64746	410.06451
2487.81445	548.95166
2486.98144	438.64905
2486.14844	508.40762
2485.31445	506.08926
2484.48144	599.75244
2483.64746	387.42996
2482.81445	328.10278
2481.98047	355.69324
2481.14648	344.28043
2480.31152	365.79147
2479.47754	597.02301
2478.64258	291.89664
2477.80859	319.33408
2476.97363	463.50198
2476.13867	514.77649
2475.30273	422.30185
2474.46777	443.58203
2473.63281	351.12167
2472.79688	435.16068
2471.96094	555.03479
2471.125	375.77918
2470.28906	456.69559
2469.45215	567.43012
2468.61621	364.28195
2467.7793	468.96161
2466.94238	250.89777
2466.10547	304.72275
2465.26856	376.42096
2464.43164	510.7717
2463.59375	436.04098
2462.75684	438.93991
2461.91894	465.66559
2461.08106	283.48908
2460.24316	551.82153
2459.40527	456.1405
2458.56641	384.30661
2457.72852	392.99414
2456.88965	458.26996
2456.05078	302.94345
2455.21191	466.4921
2454.37207	573.32721
2453.5332	349.47589
2452.69336	509.8446
2451.85449	506.37747
2451.01465	315.31299
2450.17481	466.58661
2449.33398	382.66022
2448.49414	301.73309
2447.65332	497.44385
2446.81348	351.03964
2445.97266	418.74692
2445.13184	492.34702
2444.29102	497.52353
2443.44922	627.47455
2442.6084	522.62811
2441.7666	539.57953
2440.92481	128.77834
2440.08301	317.98615
2439.24121	477.40323
2438.39844	387.35248
2437.55664	433.85703
2436.71387	379.40448
2435.87109	408.01761
2435.02832	362.43475
2434.18555	527.41077
2433.34277	644.85388
2432.49902	527.99902
2431.65625	354.86466
2430.8125	463.28091
2429.96875	645.70331
2429.125	392.55869
2428.28027	391.21851
2427.43652	532.01105
2426.5918	429.92639
2425.74707	345.61356
2424.90234	329.37531
2424.05762	313.11688
2423.21289	459.55127
2422.36719	419.53604
2421.52246	568.79834
2420.67676	404.53876
2419.83106	456.11746
2418.98535	416.02472
2418.13867	511.83289
2417.29297	492.37183
2416.44629	534.90344
2415.60059	444.50876
2414.75391	475.16727
2413.90625	588.43073
2413.05957	636.70636
2412.21289	398.67386
2411.36523	500.00311
2410.51758	441.96371
2409.66992	519.5957
2408.82227	535.24383
2407.97461	471.25284
2407.12598	404.2905
2406.27832	487.65506
2405.42969	635.76801
2404.58106	489.18518
2403.73242	375.03262
2402.88379	475.88065
2402.03418	379.36469
2401.18555	409.46585
2400.33594	592.55945
2399.48633	475.39584
2398.63672	446.51511
2397.78711	347.01877
2396.93652	459.26874
2396.08691	380.33719
2395.23633	421.92535
2394.38574	389.98587
2393.53516	355.09201
2392.68457	161.51622
2391.83301	241.17493
2390.98242	499.96387
2390.13086	526.61426
2389.2793	500.37766
2388.42773	914.44751
2387.57617	521.22711
2386.72363	465.56045
2385.87207	462.71762
2385.01953	641.68927
2384.16699	213.49768
2383.31445	594.71027
2382.46191	348.39435
2381.6084	673.6712
2380.75586	263.27405
2379.90234	506.3515
2379.04883	391.92981
2378.19531	485.46805
2377.3418	514.52185
2376.48731	584.50427
2375.63379	505.17032
2374.7793	481.42322
2373.92481	536.66046
2373.07031	556.74347
2372.21582	541.69269
2371.36035	453.49142
2370.50586	555.36267
2369.65039	437.90564
2368.79492	475.36667
2367.93945	582.91571
2367.08398	290.14749
2366.22754	394.69354
2365.37207	487.5145
2364.51563	574.40949
2363.65918	465.65234
2362.80273	459.06433
2361.94629	332.80661
2361.08887	457.46472
2360.23242	526.64496
2359.375	543.25281
2358.51758	638.55817
2357.66016	480.15872
2356.80273	528.74793
2355.94434	597.66986
2355.08594	497.54037
2354.22852	513.97241
2353.37012	320.63861
2352.51172	377.79059
2351.65234	504.7489
2350.79394	489.01498
2349.93457	292.79352
2349.07617	233.40529
2348.2168	290.36154
2347.35742	507.25092
2346.49707	476.81094
2345.63769	428.93283
2344.77734	369.39529
2343.91699	609.22552
2343.05762	468.27792
2342.19629	510.3526
2341.33594	537.88293
2340.47559	655.40906
2339.61426	575.38605
2338.75293	782.78272
2337.8916	415.35196
2337.03027	422.4024
2336.16894	525.17334
2335.30664	456.69794
2334.44531	570.97144
2333.58301	664.85309
2332.7207	723.87915
2331.8584	614.72833
2330.99609	737.44952
2330.13281	839.78955
2329.26953	516.19104
2328.40723	592.43555
2327.54394	442.71295
2326.68066	455.1662
2325.81641	374.92871
2324.95313	491.53149
2324.08887	350.4953
2323.22461	461.19556
2322.36035	623.89496
2321.49609	682.3894
2320.63184	564.4505
2319.7666	429.15973
2318.90234	525.15387
2318.03711	517.0257
2317.17188	378.85284
2316.30566	445.78717
2315.44043	504.02801
2314.57519	611.31024
2313.70898	629.0014
2312.84277	542.74182
2311.97656	407.42596
2311.11035	644.36157
2310.24316	563.81641
2309.37695	598.67194
2308.50977	676.72253
2307.64258	495.22287
2306.77539	512.67401
2305.9082	504.15207
2305.04102	535.94916
2304.17285	567.68451
2303.30469	561.9342
2302.43652	432.32227
2301.56836	602.19153
2300.70019	541.66119
2299.83203	691.24292
2298.96289	455.10089
2298.09375	627.58374
2297.22461	779.83691
2296.35547	661.65448
2295.48633	641.25812
2294.61719	402.34515
2293.74707	542.89984
2292.87695	694.86865
2292.00684	671.48102
2291.13672	860.66083
2290.2666	529.86908
2289.39551	477.70718
2288.52539	505.95486
2287.6543	915.92804
2286.7832	898.08313
2285.91211	619.09784
2285.04004	546.73261
2284.16894	431.36707
2283.29688	829.33551
2282.42578	604.95215
2281.55273	303.1788
2280.68066	376.98831
2279.80859	619.81488
2278.93555	610.37299
2278.06348	480.62244
2277.19043	602.90039
2276.31738	570.48157
2275.44434	535.1875
2274.57031	499.85638
2273.69727	341.48059
2272.82324	426.31982
2271.94922	253.64026
2271.07519	601.54352
2270.20117	368.79523
2269.32617	699.31281
2268.45215	506.60239
2267.57715	219.60414
2266.70215	438.44571
2265.82715	440.05972
2264.95215	298.83298
2264.07617	340.37701
2263.20117	616.02936
2262.32519	594.64496
2261.44922	430.53803
2260.57324	443.38834
2259.69727	290.73599
2258.82031	748.51276
2257.94336	470.30148
2257.06738	374.68231
2256.19043	484.30774
2255.3125	457.02835
2254.43555	270.17709
2253.55859	527.83807
2252.68066	594.49567
2251.80273	501.61084
2250.92481	491.31351
2250.04688	398.43481
2249.16797	527.56061
2248.29004	349.28384
2247.41113	358.81732
2246.53223	558.9209
2245.65332	571.20398
2244.77441	543.64618
2243.89453	638.30389
2243.01563	465.72348
2242.13574	563.15167
2241.25586	404.78491
2240.37598	618.61554
2239.49609	517.05756
2238.61523	460.92624
2237.73535	322.47705
2236.85449	652.42426
2235.97363	505.40295
2235.09277	613.80188
2234.21094	398.6803
2233.33008	651.67273
2232.44824	524.49432
2231.56641	493.74509
2230.68457	448.80978
2229.80273	701.47565
2228.9209	475.10306
2228.03809	469.76477
2227.15527	277.44376
2226.27344	340.09369
2225.39063	430.98801
2224.50684	425.5398
2223.62402	493.68866
2222.74023	757.03217
2221.85644	711.84045
