#Wave		#Intensity
3000.64844	172.0079
2999.91016	40.3064
2999.17188	-40.55533
2998.43359	139.33467
2997.69531	204.04318
2996.95703	140.09335
2996.21875	147.22751
2995.47949	161.11362
2994.74023	202.04996
2994.00098	178.69618
2993.26172	162.10526
2992.52246	273.99737
2991.7832	176.24265
2991.04394	237.37352
2990.30371	217.3642
2989.56348	288.57953
2988.82422	275.30987
2988.08398	248.52188
2987.34375	231.86501
2986.60254	279.35086
2985.86231	289.68149
2985.12109	178.49222
2984.38086	249.55901
2983.63965	141.77242
2982.89844	307.2482
2982.15723	216.3347
2981.41602	226.60518
2980.67481	102.00637
2979.93262	193.17001
2979.19141	200.04048
2978.44922	183.308
2977.70703	116.0377
2976.96484	112.78085
2976.22266	149.92828
2975.47949	89.40221
2974.73731	5.32687
2973.99414	241.02853
2973.25195	140.1106
2972.50879	187.26111
2971.76563	207.47218
2971.02246	180.57802
2970.2793	180.58643
2969.53516	180.58101
2968.79199	177.20834
2968.04785	183.9059
2967.30371	170.42879
2966.55957	106.54994
2965.81543	200.56561
2965.07129	183.70456
2964.32617	139.97192
2963.58203	66.03336
2962.83691	180.0845
2962.0918	112.85355
2961.34766	79.19644
2960.60254	142.82938
2959.85644	92.37888
2959.11133	75.47791
2958.36523	219.51579
2957.62012	48.36441
2956.87402	31.44592
2956.12793	64.79194
2955.38184	155.07642
2954.63574	61.06666
2953.88965	101.05733
2953.14258	144.36752
2952.39648	127.38868
2951.64941	127.13921
2950.90234	314.31
2950.15527	139.99504
2949.4082	410.71851
2948.66113	333.43787
2947.91309	463.53171
2947.16602	513.31793
2946.41797	472.80151
2945.66992	522.54254
2944.92188	582.28113
2944.17383	631.96301
2943.42578	604.77594
2942.67676	577.58368
2941.92871	550.3952
2941.17969	493.14984
2940.43066	512.69904
2939.68164	488.8385
2938.93262	495.01114
2938.18359	474.47772
2937.43457	497.30936
2936.68457	426.72571
2935.93457	409.51385
2935.18555	432.3125
2934.43555	431.75217
2933.68555	424.51526
2932.93457	497.24228
2932.18457	519.96027
2931.43359	595.95264
2930.68359	442.10333
2929.93262	344.90341
2929.18164	354.26654
2928.43066	400.23138
2927.67969	306.3873
2926.92773	245.83673
2926.17676	98.80244
2925.42481	254.49902
2924.67383	87.54048
2923.92188	189.95874
2923.16992	119.45552
2922.41699	205.18411
2921.66504	118.06517
2920.91309	64.19329
2920.16016	159.81743
2919.40723	142.46626
2918.6543	171.60172
2917.90137	77.86659
2917.14844	130.21814
2916.39551	39.82102
2915.6416	118.67997
2914.88867	78.06243
2914.13477	97.15295
2913.38086	112.90852
2912.62695	42.43095
2911.87305	164.26013
2911.11914	150.12727
2910.36426	106.15528
2909.61035	158.28647
2908.85547	31.48169
2908.10059	100.1409
2907.3457	105.84016
2906.59082	197.61557
2905.83594	87.4023
2905.08008	126.15987
2904.32519	78.85382
2903.56934	87.79675
2902.81348	119.88142
2902.05762	69.25451
2901.30176	250.11867
2900.5459	156.48071
2899.78906	171.94824
2899.0332	94.86043
2898.27637	80.56921
2897.51953	132.34915
2896.76269	81.69621
2896.00586	159.85461
2895.24902	158.72244
2894.49121	88.24193
2893.73438	146.51498
2892.97656	135.44342
2892.21875	91.36706
2891.46094	-8.78965
2890.70313	128.56787
2889.94531	137.24623
2889.1875	103.04488
2888.42871	68.8383
2887.66992	126.9215
2886.91211	-9.45491
2886.15332	48.59672
2885.39453	116.49764
2884.63477	138.24474
2883.87598	84.23714
2883.11621	13.76914
2882.35742	167.16486
2881.59766	-25.0929
2880.83789	65.70129
2880.07813	54.45902
2879.31836	59.65537
2878.55762	22.0769
2877.79785	60.13446
2877.03711	147.47414
2876.27637	119.72353
2875.51563	137.9803
2874.75488	106.93046
2873.99414	85.73499
2873.23242	57.95966
2872.47168	128.70764
2871.70996	130.45981
2870.94824	105.93588
2870.18652	71.56165
2869.42481	76.56646
2868.66309	52.02744
2867.90137	-15.16052
2867.13867	84.92698
2866.37598	116.1018
2865.61426	2.99985
2864.85156	234.11015
2864.08887	48.89343
2863.32519	60.33333
2862.5625	29.17147
2861.79883	-11.82491
2861.03613	38.88652
2860.27246	73.1883
2859.50879	-46.40397
2858.74512	27.15292
2857.98047	67.9376
2857.2168	98.88416
2856.45313	-7.59231
2855.68848	13.51183
2854.92383	34.59498
2854.15918	42.57862
2853.39453	27.66306
2852.62988	-33.01781
2851.86426	27.21233
2851.09961	64.54279
2850.33398	10.37524
2849.56836	73.78996
2848.80273	0.0213
2848.03711	4.62125
2847.27148	45.11225
2846.50488	-51.5026
2845.73926	37.90167
2844.97266	42.43074
2844.20606	-34.60039
2843.43945	-56.1765
2842.67285	-12.54636
2841.90625	-21.106
2841.13965	-16.63851
2840.37207	-2.41642
2839.60449	106.27464
2838.83691	3.16743
2838.06934	-44.54665
2837.30176	31.48663
2836.53418	97.71085
2835.7666	23.92228
2834.99805	2.21448
2834.22949	9.78678
2833.46094	66.14369
2832.69238	-36.92256
2831.92383	87.69101
2831.15527	-44.63411
2830.38574	105.90868
2829.61719	-55.6533
2828.84766	-96.93263
2828.07813	-27.73669
2827.30859	-10.55854
2826.53906	91.04821
2825.76953	-28.22321
2824.99902	47.33947
2824.22949	-6.98353
2823.45898	100.97551
2822.68848	14.17676
2821.91797	57.17418
2821.14746	70.94649
2820.37695	-32.05831
2819.60547	114.63952
2818.83398	-11.0658
2818.06348	73.9639
2817.29199	58.4736
2816.52051	-73.67612
2815.74902	105.21894
2814.97656	-4.25305
2814.20508	2.89363
2813.43262	45.63316
2812.66016	-2.30246
2811.88769	85.70686
2811.11523	-43.15078
2810.34277	-42.55483
2809.57031	-25.79926
2808.79688	-2.60291
2808.02441	-37.63021
2807.25098	59.89246
2806.47754	-43.05363
2805.7041	25.31677
2804.92969	51.63229
2804.15625	-48.06933
2803.38281	97.74339
2802.6084	52.93581
2801.83398	-17.70235
2801.05957	2.06535
2800.28516	92.82201
2799.51074	51.21509
2798.73535	-22.66466
2797.96094	42.19296
2797.18555	-38.13905
2796.41016	-2.36331
2795.63477	88.19584
2794.85938	-98.52559
2794.08398	37.10984
2793.30762	11.55069
2792.53223	92.31396
2791.75586	-62.12668
2790.97949	28.24427
2790.20313	-39.2165
2789.42676	99.3782
2788.65039	-64.66806
2787.87305	70.62344
2787.09668	3.14286
2786.31934	-22.51369
2785.54199	19.37023
2784.76465	74.08683
2783.98731	86.96864
2783.20898	19.45434
2782.43164	-25.54422
2781.65332	38.71096
2780.87598	25.82344
2780.09766	102.86342
2779.31934	-80.29334
2778.54004	76.97779
2777.76172	64.02221
2776.9834	44.63572
2776.2041	5.97659
2775.42481	150.21729
2774.64551	37.73232
2773.86621	98.48406
2773.08691	123.92027
2772.30664	46.71767
2771.52734	113.79813
2770.74707	62.23581
2769.9668	-27.77935
2769.18652	64.85395
2768.40625	13.28122
2767.62598	57.79734
2766.84473	-9.80679
2766.06445	-29.36886
2765.2832	-4.13229
2764.50195	-14.12678
2763.7207	1.4653
2762.93945	-2.16053
2762.1582	45.37855
2761.37598	19.31812
2760.59473	-13.13581
2759.8125	152.60951
2759.03027	36.99622
2758.24805	-33.84951
2757.46582	67.85456
2756.68262	28.93424
2755.90039	-176.0688
2755.11719	30.93041
2754.33398	-75.06047
2753.55176	36.05148
2752.76758	73.68152
2751.98438	-51.45477
2751.20117	56.34286
2750.41699	-87.92487
2749.63379	125.05281
2748.84961	73.26463
2748.06543	88.42908
2747.28125	-27.11694
2746.49609	64.5049
2745.71191	41.37627
2744.92676	-32.74107
2744.14258	-8.09959
2743.35742	6.95376
2742.57227	47.45668
2741.78711	14.70946
2741.00098	58.33612
2740.21582	-47.62582
2739.42969	18.23358
2738.64356	45.87936
2737.85742	105.30199
2737.07129	88.36913
2736.28516	-49.38676
2735.49902	73.54284
2734.71191	34.31846
2733.92578	39.58506
2733.13867	159.19299
2732.35156	62.74902
2731.56445	80.65011
2730.77637	79.46758
2729.98926	163.99013
2729.20117	143.71393
2728.41406	82.18284
2727.62598	42.85781
2726.83789	146.27959
2726.04981	141.81021
2725.26074	150.00037
2724.47266	151.838
2723.68359	182.17737
2722.89551	57.20231
2722.10644	20.97041
2721.31738	111.45807
2720.52734	18.17024
2719.73828	-2.25261
2718.94922	103.9679
2718.15918	200.62499
2717.36914	-6.62688
2716.5791	-106.22398
2715.78906	129.58049
2714.99902	-14.32822
2714.20801	-3.23268
2713.41797	77.41901
2712.62695	113.75091
2711.83594	-1.6793
2711.04492	-28.59134
2710.25391	29.8053
2709.46289	75.52525
2708.6709	-5.14729
2707.87988	43.68407
2707.08789	73.52498
2706.2959	52.82559
2705.50391	35.27217
2704.71191	74.51094
2703.91894	63.22466
2703.12695	20.38786
2702.33398	46.92781
2701.54102	63.9791
2700.74805	30.56052
2699.95508	-56.45269
2699.16211	-7.92944
2698.36914	78.37049
2697.57519	-68.52703
2696.78125	80.70436
2695.98828	195.22899
2695.19434	133.35271
2694.39941	71.47145
2693.60547	22.19445
2692.81152	89.3566
2692.0166	71.51221
2691.22168	9.61423
2690.42676	89.25691
2689.63184	49.35427
2688.83691	44.03254
2688.04199	-83.9019
2687.24609	74.18741
2686.45019	9.09437
2685.6543	132.51109
2684.8584	10.85312
2684.0625	21.12555
2683.2666	9.39551
2682.4707	51.02091
2681.67383	58.07507
2680.87695	109.04296
2680.08008	21.9165
2679.2832	-27.55188
2678.48633	-14.2909
2677.68945	114.97457
2676.8916	-66.2335
2676.09473	-18.54747
2675.29688	13.42081
2674.49902	-1.64507
2673.70117	-38.65552
2672.90234	-19.29817
2672.10449	97.12957
2671.30664	16.22671
2670.50781	104.3803
2669.70898	57.88854
2668.91016	70.85517
2668.11133	83.79777
2667.31152	49.78126
2666.51269	-12.38139
2665.71289	34.90012
2664.91309	28.99296
2664.11426	-61.32302
2663.31348	79.63506
2662.51367	79.91452
2661.71387	2.06801
2660.91309	177.23772
2660.11328	-47.42181
2659.3125	15.24268
2658.51172	-78.23158
2657.71094	40.56044
2656.90918	106.22517
2656.1084	0.24672
2655.30664	-40.2109
2654.50488	103.34891
2653.70313	-68.12637
2652.90137	100.28855
2652.09961	13.00455
2651.29785	41.05117
2650.49512	84.63744
2649.69336	-33.80931
2648.89063	-15.18449
2648.08789	65.70081
2647.28516	6.41565
2646.48144	-34.19869
2645.67871	43.47279
2644.875	55.73155
2644.07129	15.07099
2643.26758	70.84292
2642.46387	120.35347
2641.66016	-91.39125
2640.85644	88.67515
2640.05176	13.74119
2639.24805	-26.986
2638.44336	168.43338
2637.63867	43.75706
2636.83398	121.01286
2636.02832	164.0462
2635.22363	33.16988
2634.41797	116.52196
2633.61231	-85.73859
2632.80762	41.0219
2632.00098	-49.50116
2631.19531	-19.01419
2630.38965	175.82617
2629.58301	41.85323
2628.77734	214.86569
2627.9707	71.59529
2627.16406	-49.94702
2626.35742	51.6428
2625.54981	-48.21565
2624.74316	31.61201
2623.93555	83.5055
2623.12891	39.38176
2622.32129	115.97981
2621.51367	183.24284
2620.70508	77.14774
2619.89746	97.94043
2619.08887	1.14006
2618.28125	96.12839
2617.47266	-71.80087
2616.66406	60.21384
2615.85547	6.68691
2615.0459	52.04719
2614.23731	140.642
2613.42773	-30.34331
2612.61816	76.71389
2611.80957	121.95561
2610.99902	40.53954
2610.18945	-43.94227
2609.37988	96.90624
2608.56934	-21.55433
2607.75977	230.27071
2606.94922	-48.62404
2606.13867	-19.00885
2605.32813	-48.01604
2604.5166	107.94166
2603.70606	20.31147
2602.89453	-79.6466
2602.08301	-31.68221
2601.27148	77.85918
2600.45996	165.77689
2599.64844	25.74641
2598.83691	-64.98759
2598.02441	10.51795
2597.21191	67.50665
2596.39941	-26.33714
2595.58691	64.43893
2594.77441	-7.87849
2593.96191	76.66638
2593.14844	99.64541
2592.33594	134.90459
2591.52246	259.25973
2590.70898	-71.30366
2589.89551	37.63703
2589.08106	100.42088
2588.26758	-27.26632
2587.45313	29.32099
2586.63965	107.37136
2585.82519	53.35439
2585.01074	39.23692
2584.19531	-106.86375
2583.38086	63.09875
2582.56543	165.47789
2581.75098	50.05307
2580.93555	106.35659
2580.12012	92.103
2579.30469	-26.38544
2578.48828	100.31089
2577.67285	-70.26791
2576.85644	126.80726
2576.04004	164.51274
2575.22363	159.3085
2574.40723	34.67401
2573.59082	96.80021
2572.77441	39.51519
2571.95703	9.75797
2571.13965	44.23988
2570.32227	-0.84524
2569.50488	73.34051
2568.6875	116.89916
2567.87012	10.61539
2567.05176	-31.47379
2566.23438	24.23821
2565.41602	12.67308
2564.59766	37.74983
2563.7793	252.16524
2562.95996	-19.08626
2562.1416	97.51231
2561.32227	64.45319
2560.50391	68.022
2559.68457	59.34811
2558.86523	62.8595
2558.04492	215.80096
2557.22559	127.74391
2556.40527	42.73407
2555.58594	-69.69076
2554.76563	107.45599
2553.94531	101.6654
2553.12402	89.74804
2552.30371	-13.56425
2551.4834	53.70272
2550.66211	72.18562
2549.84082	111.95182
2549.01953	99.9315
2548.19824	63.54603
2547.37695	-0.23436
2546.55469	182.40219
2545.7334	-42.63488
2544.91113	194.63753
2544.08887	225.03595
2543.2666	179.40022
2542.44434	145.91638
2541.62109	69.86494
2540.79883	139.67217
2539.97559	112.20958
2539.15234	160.66397
2538.3291	221.2243
2537.50586	87.43208
2536.68164	41.68338
2535.8584	102.16355
2535.03418	232.37471
2534.20996	162.286
2533.38574	-86.7569
2532.56152	155.55464
2531.73731	197.63759
2530.91211	100.22041
2530.08789	99.81979
2529.26269	93.32233
2528.4375	80.74466
2527.61231	162.05408
2526.78711	155.48009
2525.96094	79.22659
2525.13574	45.37743
2524.30957	32.69247
2523.4834	-34.48435
2522.65723	-56.27217
2521.83106	55.03408
2521.00391	102.74415
2520.17773	108.09058
2519.35059	58.97457
2518.52344	79.38179
2517.69629	36.28929
2516.86914	295.36798
2516.04199	-10.64144
2515.21387	18.71957
2514.38574	2.74488
2513.55859	146.80171
2512.73047	85.4784
2511.90137	57.34375
2511.07324	-22.09237
2510.24512	31.23689
2509.41602	144.84166
2508.58691	17.09311
2507.75781	160.76665
2506.92871	171.70454
2506.09961	31.89607
2505.27051	91.02922
2504.44043	41.6252
2503.61035	64.52116
2502.78027	45.21563
2501.95019	128.28626
2501.12012	0.53429
2500.29004	188.90018
2499.45898	49.08422
2498.62793	-63.61881
2497.79785	284.04398
2496.9668	168.28461
2496.13477	76.59084
2495.30371	117.23165
2494.47266	133.78227
2493.64063	18.02979
2492.80859	79.61091
2491.97656	102.08374
2491.14453	157.57036
2490.3125	182.97655
2489.47949	70.19568
2488.64746	230.6729
2487.81445	231.95033
2486.98144	161.17219
2486.14844	330.45813
2485.31445	58.61253
2484.48144	104.82197
2483.64746	231.95065
2482.81445	173.11537
2481.98047	213.19537
2481.14648	286.20807
2480.31152	203.32105
2479.47754	39.55801
2478.64258	172.38934
2477.80859	110.48048
2476.97363	183.31047
2476.13867	217.16739
2475.30273	185.11809
2474.46777	206.94338
2473.63281	-58.5213
2472.79688	14.13802
2471.96094	176.48048
2471.125	147.34108
2470.28906	177.98881
2469.45215	112.92403
2468.61621	203.29746
2467.7793	162.11116
2466.94238	195.61092
2466.10547	187.2533
2465.26856	172.90158
2464.43164	200.33653
2463.59375	-5.14629
2462.75684	96.88788
2461.91894	76.48472
2461.08106	139.61186
2460.24316	-18.0676
2459.40527	128.52057
2458.56641	36.44572
2457.72852	30.8621
2456.88965	93.80342
2456.05078	13.63735
2455.21191	52.67151
2454.37207	145.27789
2453.5332	2.52306
2452.69336	133.77255
2451.85449	56.53249
2451.01465	187.67415
2450.17481	116.3427
2449.33398	36.07114
2448.49414	143.26712
2447.65332	146.26613
2446.81348	164.12677
2445.97266	80.83729
2445.13184	45.12451
2444.29102	-79.77425
2443.44922	89.55716
2442.6084	-41.29315
2441.7666	160.59792
2440.92481	-98.00219
2440.08301	145.35089
2439.24121	118.39642
2438.39844	124.06651
2437.55664	114.88611
2436.71387	93.79948
2435.87109	232.90823
2435.02832	122.7695
2434.18555	128.31249
2433.34277	193.13339
2432.49902	183.77357
2431.65625	49.91888
2430.8125	34.61441
2429.96875	164.47603
2429.125	45.42419
2428.28027	-103.2411
2427.43652	136.06712
2426.5918	34.76335
2425.74707	152.52463
2424.90234	151.83386
2424.05762	53.47134
2423.21289	179.9649
2422.36719	-36.74589
2421.52246	234.57754
2420.67676	68.15558
2419.83106	28.88902
2418.98535	51.68219
2418.13867	59.65028
2417.29297	-23.98202
2416.44629	125.7393
2415.60059	104.09905
2414.75391	153.29387
2413.90625	167.00238
2413.05957	56.72538
2412.21289	94.02427
2411.36523	237.48967
2410.51758	147.82295
2409.66992	64.06561
2408.82227	-1.99084
2407.97461	197.30548
2407.12598	-25.04962
2406.27832	70.97326
2405.42969	264.15915
2404.58106	245.1275
2403.73242	231.96916
2402.88379	180.50739
2402.03418	64.24614
2401.18555	-22.53929
2400.33594	120.24494
2399.48633	174.66862
2398.63672	246.70003
2397.78711	165.71515
2396.93652	93.54302
2396.08691	53.73653
2395.23633	-44.89539
2394.38574	32.84998
2393.53516	136.99121
2392.68457	102.96922
2391.83301	71.85661
2390.98242	120.05219
2390.13086	100.6459
2389.2793	104.71069
2388.42773	185.07277
2387.57617	86.34933
2386.72363	22.83452
2385.87207	167.63734
2385.01953	121.68198
2384.16699	-0.53026
2383.31445	267.25357
2382.46191	188.98564
2381.6084	57.94726
2380.75586	281.53726
2379.90234	200.29088
2379.04883	338.75205
2378.19531	81.75036
2377.3418	322.62033
2376.48731	94.93021
2375.63379	13.67581
2374.7793	96.29688
2373.92481	-25.95696
2373.07031	56.59205
2372.21582	7.4659
2371.36035	116.22982
2370.50586	146.00386
2369.65039	70.48976
2368.79492	187.87474
2367.93945	80.18912
2367.08398	-36.24339
2366.22754	-6.62521
2365.37207	55.09997
2364.51563	183.91682
2363.65918	160.856
2362.80273	166.96732
2361.94629	196.39825
2361.08887	103.23431
2360.23242	13.01693
2359.375	191.1124
2358.51758	275.80435
2357.66016	153.44591
2356.80273	208.91594
2355.94434	-35.85054
2355.08594	232.27155
2354.22852	74.95956
2353.37012	10.87006
2352.51172	138.9773
2351.65234	170.91341
2350.79394	-9.66888
2349.93457	86.26424
2349.07617	115.22838
2348.2168	71.40617
2347.35742	-56.77634
2346.49707	178.57069
2345.63769	230.64125
2344.77734	186.71645
2343.91699	107.90551
2343.05762	104.67467
2342.19629	-20.64372
2341.33594	330.47693
2340.47559	141.23936
2339.61426	123.35262
2338.75293	-45.51683
2337.8916	-5.35627
2337.03027	162.4559
2336.16894	132.87723
2335.30664	-53.38578
2334.44531	282.49222
2333.58301	107.82355
2332.7207	86.86128
2331.8584	31.09713
2330.99609	4.31334
2330.13281	113.68553
2329.26953	138.97755
2328.40723	143.97824
2327.54394	-74.05649
2326.68066	136.49228
2325.81641	92.16869
2324.95313	140.47481
2324.08887	206.08292
2323.22461	179.05972
2322.36035	16.06738
2321.49609	101.83442
2320.63184	181.76224
2319.7666	-30.37416
2318.90234	144.88506
2318.03711	42.60545
2317.17188	-24.98693
2316.30566	144.2842
2315.44043	128.6386
2314.57519	63.88537
2313.70898	175.22809
2312.84277	20.94077
2311.97656	94.68357
2311.11035	188.57371
2310.24316	-40.72631
2309.37695	99.25546
2308.50977	118.02072
2307.64258	-18.93964
2306.77539	92.04041
2305.9082	125.1367
2305.04102	-29.10778
2304.17285	150.86679
2303.30469	100.30823
2302.43652	331.98026
2301.56836	51.00787
2300.70019	204.8257
2299.83203	151.32341
2298.96289	132.33122
2298.09375	18.37637
2297.22461	-32.27256
2296.35547	152.91376
2295.48633	-27.18671
2294.61719	74.50613
2293.74707	43.89369
2292.87695	240.30605
2292.00684	137.79303
2291.13672	158.82637
2290.2666	44.83283
2289.39551	108.88463
2288.52539	164.29446
2287.6543	170.84148
2286.7832	125.70155
2285.91211	92.03294
2285.04004	35.38432
2284.16894	179.53928
2283.29688	168.73378
2282.42578	241.07962
2281.55273	141.33296
2280.68066	293.84317
2279.80859	159.71063
2278.93555	80.022
2278.06348	146.45172
2277.19043	-33.48811
2276.31738	121.63842
2275.44434	27.61258
2274.57031	199.7758
2273.69727	37.04298
2272.82324	254.8723
2271.94922	43.49369
2271.07519	-19.09963
2270.20117	95.60115
2269.32617	-118.5724
2268.45215	38.93544
2267.57715	27.7223
2266.70215	96.49771
2265.82715	210.93262
2264.95215	-8.88311
2264.07617	102.60661
2263.20117	119.83073
2262.32519	-8.58105
2261.44922	31.42559
2260.57324	40.00402
2259.69727	85.64648
2258.82031	188.27708
2257.94336	162.51083
2257.06738	233.69807
2256.19043	256.35111
2255.3125	119.33901
2254.43555	-94.56319
2253.55859	141.75903
2252.68066	152.9084
2251.80273	149.79103
2250.92481	266.2468
2250.04688	38.15562
2249.16797	97.59576
2248.29004	199.6989
2247.41113	-2.72811
2246.53223	141.96213
2245.65332	164.27258
2244.77441	81.3371
2243.89453	220.15474
2243.01563	100.2431
2242.13574	460.63736
2241.25586	298.03876
2240.37598	58.77543
2239.49609	245.64041
2238.61523	139.88754
2237.73535	161.94185
2236.85449	-0.57281
2235.97363	376.20993
2235.09277	210.83598
2234.21094	167.47711
2233.33008	107.11611
2232.44824	-66.70534
2231.56641	94.10379
2230.68457	16.69589
2229.80273	120.69601
2228.9209	159.45673
2228.03809	186.82643
2227.15527	338.80444
2226.27344	199.00835
2225.39063	-20.0615
2224.50684	103.47286
2223.62402	198.65317
2222.74023	58.86448
2221.85644	366.16287
2220.97363	138.67772
2220.08887	38.49375
2219.20508	127.81245
2218.32129	202.9391
2217.43652	306.26102
2216.55176	239.95247
2215.66699	196.25281
2214.78223	-14.13191
2213.89746	255.71733
2213.01172	-33.73316
2212.12695	162.56363
2211.24121	192.19159
2210.35547	193.56249
2209.46875	194.89154
2208.58301	227.25424
2207.69629	197.50586
